time[s] cpu.0.freq[MHz] cpu.0.recload cpu.0.load max(freqs)[MHz] sum(recloads) max(recloads) sum(loads) max(loads)
0.025 2000 0.001 0.001 2000 0.001 0.001 0.001 0.001
0.050 2000 0.002 0.002 2000 0.002 0.002 0.002 0.002
0.075 2000 0.003 0.003 2000 0.003 0.003 0.003 0.003
0.100 2000 0.003 0.003 2000 0.003 0.003 0.003 0.003
0.125 2000 0.004 0.004 2000 0.004 0.004 0.004 0.004
0.150 2000 0.005 0.005 2000 0.005 0.005 0.005 0.005
0.175 2000 0.006 0.006 2000 0.006 0.006 0.006 0.006
0.200 2000 0.007 0.007 2000 0.007 0.007 0.007 0.007
0.225 2000 0.007 0.007 2000 0.007 0.007 0.007 0.007
0.250 2000 0.008 0.008 2000 0.008 0.008 0.008 0.008
0.275 2000 0.009 0.009 2000 0.009 0.009 0.009 0.009
0.300 2000 0.010 0.010 2000 0.010 0.010 0.010 0.010
0.325 2000 0.011 0.011 2000 0.011 0.011 0.011 0.011
0.350 2000 0.012 0.012 2000 0.012 0.012 0.012 0.012
0.375 2000 0.013 0.013 2000 0.013 0.013 0.013 0.013
0.400 2000 0.013 0.013 2000 0.013 0.013 0.013 0.013
0.425 2000 0.014 0.014 2000 0.014 0.014 0.014 0.014
0.450 2000 0.015 0.015 2000 0.015 0.015 0.015 0.015
0.475 2000 0.016 0.016 2000 0.016 0.016 0.016 0.016
0.500 2000 0.017 0.017 2000 0.017 0.017 0.017 0.017
0.525 2000 0.018 0.018 2000 0.018 0.018 0.018 0.018
0.550 500 0.018 0.073 500 0.018 0.018 0.073 0.073
0.575 500 0.019 0.077 500 0.019 0.019 0.077 0.077
0.600 500 0.020 0.080 500 0.020 0.020 0.080 0.080
0.625 500 0.021 0.083 500 0.021 0.021 0.083 0.083
0.650 500 0.022 0.087 500 0.022 0.022 0.087 0.087
0.675 500 0.022 0.090 500 0.022 0.022 0.090 0.090
0.700 500 0.023 0.093 500 0.023 0.023 0.093 0.093
0.725 500 0.024 0.097 500 0.024 0.024 0.097 0.097
0.750 500 0.025 0.100 500 0.025 0.025 0.100 0.100
0.775 500 0.026 0.103 500 0.026 0.026 0.103 0.103
0.800 500 0.027 0.107 500 0.027 0.027 0.107 0.107
0.825 500 0.028 0.110 500 0.028 0.028 0.110 0.110
0.850 500 0.028 0.113 500 0.028 0.028 0.113 0.113
0.875 500 0.029 0.117 500 0.029 0.029 0.117 0.117
0.900 500 0.030 0.120 500 0.030 0.030 0.120 0.120
0.925 500 0.031 0.123 500 0.031 0.031 0.123 0.123
0.950 500 0.032 0.127 500 0.032 0.032 0.127 0.127
0.975 500 0.033 0.130 500 0.033 0.033 0.130 0.130
1.000 500 0.033 0.133 500 0.033 0.033 0.133 0.133
1.025 500 0.034 0.137 500 0.034 0.034 0.137 0.137
1.050 500 0.035 0.140 500 0.035 0.035 0.140 0.140
1.075 500 0.036 0.143 500 0.036 0.036 0.143 0.143
1.100 500 0.037 0.147 500 0.037 0.037 0.147 0.147
1.125 500 0.037 0.150 500 0.037 0.037 0.150 0.150
1.150 500 0.038 0.153 500 0.038 0.038 0.153 0.153
1.175 500 0.039 0.157 500 0.039 0.039 0.157 0.157
1.200 500 0.040 0.160 500 0.040 0.040 0.160 0.160
1.225 500 0.041 0.163 500 0.041 0.041 0.163 0.163
1.250 500 0.042 0.167 500 0.042 0.042 0.167 0.167
1.275 500 0.043 0.170 500 0.043 0.043 0.170 0.170
1.300 500 0.043 0.173 500 0.043 0.043 0.173 0.173
1.325 500 0.044 0.177 500 0.044 0.044 0.177 0.177
1.350 500 0.045 0.180 500 0.045 0.045 0.180 0.180
1.375 500 0.046 0.183 500 0.046 0.046 0.183 0.183
1.400 500 0.047 0.187 500 0.047 0.047 0.187 0.187
1.425 500 0.048 0.190 500 0.048 0.048 0.190 0.190
1.450 500 0.048 0.193 500 0.048 0.048 0.193 0.193
1.475 500 0.049 0.197 500 0.049 0.049 0.197 0.197
1.500 500 0.050 0.200 500 0.050 0.050 0.200 0.200
1.525 500 0.051 0.203 500 0.051 0.051 0.203 0.203
1.550 500 0.052 0.207 500 0.052 0.052 0.207 0.207
1.575 500 0.052 0.210 500 0.052 0.052 0.210 0.210
1.600 500 0.053 0.213 500 0.053 0.053 0.213 0.213
1.625 500 0.054 0.217 500 0.054 0.054 0.217 0.217
1.650 500 0.055 0.220 500 0.055 0.055 0.220 0.220
1.675 500 0.056 0.223 500 0.056 0.056 0.223 0.223
1.700 500 0.057 0.227 500 0.057 0.057 0.227 0.227
1.725 500 0.058 0.230 500 0.058 0.058 0.230 0.230
1.750 500 0.058 0.233 500 0.058 0.058 0.233 0.233
1.775 500 0.059 0.237 500 0.059 0.059 0.237 0.237
1.800 500 0.060 0.240 500 0.060 0.060 0.240 0.240
1.825 500 0.061 0.243 500 0.061 0.061 0.243 0.243
1.850 500 0.062 0.247 500 0.062 0.062 0.247 0.247
1.875 500 0.062 0.250 500 0.062 0.062 0.250 0.250
1.900 500 0.063 0.253 500 0.063 0.063 0.253 0.253
1.925 500 0.064 0.257 500 0.064 0.064 0.257 0.257
1.950 500 0.065 0.260 500 0.065 0.065 0.260 0.260
1.975 500 0.066 0.263 500 0.066 0.066 0.263 0.263
2.000 500 0.067 0.267 500 0.067 0.067 0.267 0.267
2.025 500 0.068 0.270 500 0.068 0.068 0.270 0.270
2.050 500 0.068 0.273 500 0.068 0.068 0.273 0.273
2.075 500 0.069 0.277 500 0.069 0.069 0.277 0.277
2.100 500 0.070 0.280 500 0.070 0.070 0.280 0.280
2.125 500 0.071 0.283 500 0.071 0.071 0.283 0.283
2.150 500 0.072 0.287 500 0.072 0.072 0.287 0.287
2.175 500 0.072 0.290 500 0.072 0.072 0.290 0.290
2.200 500 0.073 0.293 500 0.073 0.073 0.293 0.293
2.225 500 0.074 0.297 500 0.074 0.074 0.297 0.297
2.250 500 0.075 0.300 500 0.075 0.075 0.300 0.300
2.275 500 0.076 0.303 500 0.076 0.076 0.303 0.303
2.300 500 0.077 0.307 500 0.077 0.077 0.307 0.307
2.325 500 0.077 0.310 500 0.077 0.077 0.310 0.310
2.350 500 0.078 0.313 500 0.078 0.078 0.313 0.313
2.375 500 0.079 0.317 500 0.079 0.079 0.317 0.317
2.400 500 0.080 0.320 500 0.080 0.080 0.320 0.320
2.425 500 0.081 0.323 500 0.081 0.081 0.323 0.323
2.450 500 0.082 0.327 500 0.082 0.082 0.327 0.327
2.475 500 0.083 0.330 500 0.083 0.083 0.330 0.330
2.500 500 0.083 0.333 500 0.083 0.083 0.333 0.333
2.525 500 0.084 0.337 500 0.084 0.084 0.337 0.337
2.550 500 0.085 0.340 500 0.085 0.085 0.340 0.340
2.575 500 0.086 0.343 500 0.086 0.086 0.343 0.343
2.600 500 0.087 0.347 500 0.087 0.087 0.347 0.347
2.625 500 0.087 0.350 500 0.087 0.087 0.350 0.350
2.650 500 0.088 0.353 500 0.088 0.088 0.353 0.353
2.675 500 0.089 0.357 500 0.089 0.089 0.357 0.357
2.700 500 0.090 0.360 500 0.090 0.090 0.360 0.360
2.725 500 0.091 0.363 500 0.091 0.091 0.363 0.363
2.750 500 0.092 0.367 500 0.092 0.092 0.367 0.367
2.775 500 0.092 0.370 500 0.092 0.092 0.370 0.370
2.800 500 0.093 0.373 500 0.093 0.093 0.373 0.373
2.825 500 0.094 0.377 500 0.094 0.094 0.377 0.377
2.850 500 0.095 0.380 500 0.095 0.095 0.380 0.380
2.875 500 0.096 0.383 500 0.096 0.096 0.383 0.383
2.900 500 0.097 0.387 500 0.097 0.097 0.387 0.387
2.925 500 0.098 0.390 500 0.098 0.098 0.390 0.390
2.950 500 0.098 0.393 500 0.098 0.098 0.393 0.393
2.975 500 0.099 0.397 500 0.099 0.099 0.397 0.397
3.000 500 0.100 0.400 500 0.100 0.100 0.400 0.400
3.025 500 0.101 0.403 500 0.101 0.101 0.403 0.403
3.050 500 0.102 0.407 500 0.102 0.102 0.407 0.407
3.075 500 0.102 0.410 500 0.102 0.102 0.410 0.410
3.100 500 0.103 0.413 500 0.103 0.103 0.413 0.413
3.125 500 0.104 0.417 500 0.104 0.104 0.417 0.417
3.150 500 0.105 0.420 500 0.105 0.105 0.420 0.420
3.175 500 0.106 0.423 500 0.106 0.106 0.423 0.423
3.200 500 0.107 0.427 500 0.107 0.107 0.427 0.427
3.225 500 0.107 0.430 500 0.107 0.107 0.430 0.430
3.250 500 0.108 0.433 500 0.108 0.108 0.433 0.433
3.275 500 0.109 0.437 500 0.109 0.109 0.437 0.437
3.300 500 0.110 0.440 500 0.110 0.110 0.440 0.440
3.325 500 0.111 0.443 500 0.111 0.111 0.443 0.443
3.350 500 0.112 0.447 500 0.112 0.112 0.447 0.447
3.375 500 0.113 0.450 500 0.113 0.113 0.450 0.450
3.400 500 0.113 0.453 500 0.113 0.113 0.453 0.453
3.425 500 0.114 0.457 500 0.114 0.114 0.457 0.457
3.450 500 0.115 0.460 500 0.115 0.115 0.460 0.460
3.475 500 0.116 0.463 500 0.116 0.116 0.463 0.463
3.500 500 0.117 0.467 500 0.117 0.117 0.467 0.467
3.525 500 0.117 0.470 500 0.117 0.117 0.470 0.470
3.550 500 0.118 0.473 500 0.118 0.118 0.473 0.473
3.575 500 0.119 0.477 500 0.119 0.119 0.477 0.477
3.600 500 0.120 0.480 500 0.120 0.120 0.480 0.480
3.625 500 0.121 0.483 500 0.121 0.121 0.483 0.483
3.650 500 0.122 0.487 500 0.122 0.122 0.487 0.487
3.675 500 0.122 0.490 500 0.122 0.122 0.490 0.490
3.700 500 0.123 0.493 500 0.123 0.123 0.493 0.493
3.725 500 0.124 0.497 500 0.124 0.124 0.497 0.497
3.750 500 0.125 0.500 500 0.125 0.125 0.500 0.500
3.775 500 0.126 0.503 500 0.126 0.126 0.503 0.503
3.800 500 0.127 0.507 500 0.127 0.127 0.507 0.507
3.825 500 0.128 0.510 500 0.128 0.128 0.510 0.510
3.850 500 0.128 0.513 500 0.128 0.128 0.513 0.513
3.875 500 0.129 0.517 500 0.129 0.129 0.517 0.517
3.900 500 0.130 0.520 500 0.130 0.130 0.520 0.520
3.925 500 0.131 0.523 500 0.131 0.131 0.523 0.523
3.950 500 0.132 0.527 500 0.132 0.132 0.527 0.527
3.975 500 0.133 0.530 500 0.133 0.133 0.530 0.530
4.000 500 0.133 0.533 500 0.133 0.133 0.533 0.533
4.025 500 0.134 0.537 500 0.134 0.134 0.537 0.537
4.050 500 0.135 0.540 500 0.135 0.135 0.540 0.540
4.075 500 0.136 0.543 500 0.136 0.136 0.543 0.543
4.100 500 0.137 0.547 500 0.137 0.137 0.547 0.547
4.125 500 0.138 0.550 500 0.138 0.138 0.550 0.550
4.150 500 0.138 0.553 500 0.138 0.138 0.553 0.553
4.175 500 0.139 0.557 500 0.139 0.139 0.557 0.557
4.200 500 0.140 0.560 500 0.140 0.140 0.560 0.560
4.225 500 0.141 0.563 500 0.141 0.141 0.563 0.563
4.250 500 0.142 0.567 500 0.142 0.142 0.567 0.567
4.275 500 0.142 0.570 500 0.142 0.142 0.570 0.570
4.300 500 0.143 0.573 500 0.143 0.143 0.573 0.573
4.325 500 0.144 0.577 500 0.144 0.144 0.577 0.577
4.350 500 0.145 0.580 500 0.145 0.145 0.580 0.580
4.375 500 0.146 0.583 500 0.146 0.146 0.583 0.583
4.400 500 0.147 0.587 500 0.147 0.147 0.587 0.587
4.425 500 0.147 0.590 500 0.147 0.147 0.590 0.590
4.450 500 0.148 0.593 500 0.148 0.148 0.593 0.593
4.475 500 0.149 0.597 500 0.149 0.149 0.597 0.597
4.500 500 0.150 0.600 500 0.150 0.150 0.600 0.600
4.525 500 0.151 0.603 500 0.151 0.151 0.603 0.603
4.550 600 0.152 0.506 600 0.152 0.152 0.506 0.506
4.575 600 0.152 0.508 600 0.152 0.152 0.508 0.508
4.600 600 0.153 0.511 600 0.153 0.153 0.511 0.511
4.625 600 0.154 0.514 600 0.154 0.154 0.514 0.514
4.650 600 0.155 0.517 600 0.155 0.155 0.517 0.517
4.675 600 0.156 0.519 600 0.156 0.156 0.519 0.519
4.700 600 0.157 0.522 600 0.157 0.157 0.522 0.522
4.725 600 0.158 0.525 600 0.158 0.158 0.525 0.525
4.750 600 0.158 0.528 600 0.158 0.158 0.528 0.528
4.775 600 0.159 0.531 600 0.159 0.159 0.531 0.531
4.800 600 0.160 0.533 600 0.160 0.160 0.533 0.533
4.825 600 0.161 0.536 600 0.161 0.161 0.536 0.536
4.850 600 0.162 0.539 600 0.162 0.162 0.539 0.539
4.875 600 0.163 0.542 600 0.163 0.163 0.542 0.542
4.900 600 0.163 0.544 600 0.163 0.163 0.544 0.544
4.925 600 0.164 0.547 600 0.164 0.164 0.547 0.547
4.950 600 0.165 0.550 600 0.165 0.165 0.550 0.550
4.975 600 0.166 0.553 600 0.166 0.166 0.553 0.553
5.000 600 0.167 0.556 600 0.167 0.167 0.556 0.556
5.025 600 0.168 0.558 600 0.168 0.168 0.558 0.558
5.050 800 0.168 0.421 800 0.168 0.168 0.421 0.421
5.075 800 0.169 0.423 800 0.169 0.169 0.423 0.423
5.100 800 0.170 0.425 800 0.170 0.170 0.425 0.425
5.125 800 0.171 0.427 800 0.171 0.171 0.427 0.427
5.150 800 0.172 0.429 800 0.172 0.172 0.429 0.429
5.175 800 0.172 0.431 800 0.172 0.172 0.431 0.431
5.200 800 0.173 0.433 800 0.173 0.173 0.433 0.433
5.225 800 0.174 0.435 800 0.174 0.174 0.435 0.435
5.250 800 0.175 0.438 800 0.175 0.175 0.438 0.438
5.275 800 0.176 0.440 800 0.176 0.176 0.440 0.440
5.300 800 0.177 0.442 800 0.177 0.177 0.442 0.442
5.325 800 0.177 0.444 800 0.177 0.177 0.444 0.444
5.350 800 0.178 0.446 800 0.178 0.178 0.446 0.446
5.375 800 0.179 0.448 800 0.179 0.179 0.448 0.448
5.400 800 0.180 0.450 800 0.180 0.180 0.450 0.450
5.425 800 0.181 0.452 800 0.181 0.181 0.452 0.452
5.450 800 0.182 0.454 800 0.182 0.182 0.454 0.454
5.475 800 0.182 0.456 800 0.182 0.182 0.456 0.456
5.500 800 0.183 0.458 800 0.183 0.183 0.458 0.458
5.525 800 0.184 0.460 800 0.184 0.184 0.460 0.460
5.550 1100 0.185 0.336 1100 0.185 0.185 0.336 0.336
5.575 1100 0.186 0.338 1100 0.186 0.186 0.338 0.338
5.600 1100 0.187 0.339 1100 0.187 0.187 0.339 0.339
5.625 1100 0.188 0.341 1100 0.188 0.188 0.341 0.341
5.650 1100 0.188 0.342 1100 0.188 0.188 0.342 0.342
5.675 1100 0.189 0.344 1100 0.189 0.189 0.344 0.344
5.700 1100 0.190 0.345 1100 0.190 0.190 0.345 0.345
5.725 1100 0.191 0.347 1100 0.191 0.191 0.347 0.347
5.750 1100 0.192 0.348 1100 0.192 0.192 0.348 0.348
5.775 1100 0.193 0.350 1100 0.193 0.193 0.350 0.350
5.800 1100 0.193 0.352 1100 0.193 0.193 0.352 0.352
5.825 1100 0.194 0.353 1100 0.194 0.194 0.353 0.353
5.850 1100 0.195 0.355 1100 0.195 0.195 0.355 0.355
5.875 1100 0.196 0.356 1100 0.196 0.196 0.356 0.356
5.900 1100 0.197 0.358 1100 0.197 0.197 0.358 0.358
5.925 1100 0.198 0.359 1100 0.198 0.198 0.359 0.359
5.950 1100 0.198 0.361 1100 0.198 0.198 0.361 0.361
5.975 1100 0.199 0.362 1100 0.199 0.199 0.362 0.362
6.000 1100 0.200 0.364 1100 0.200 0.200 0.364 0.364
6.025 1100 0.201 0.365 1100 0.201 0.201 0.365 0.365
6.050 1300 0.202 0.310 1300 0.202 0.202 0.310 0.310
6.075 1300 0.203 0.312 1300 0.203 0.203 0.312 0.312
6.100 1300 0.203 0.313 1300 0.203 0.203 0.313 0.313
6.125 1300 0.204 0.314 1300 0.204 0.204 0.314 0.314
6.150 1300 0.205 0.315 1300 0.205 0.205 0.315 0.315
6.175 1300 0.206 0.317 1300 0.206 0.206 0.317 0.317
6.200 1300 0.207 0.318 1300 0.207 0.207 0.318 0.318
6.225 1300 0.207 0.319 1300 0.207 0.207 0.319 0.319
6.250 1300 0.208 0.321 1300 0.208 0.208 0.321 0.321
6.275 1300 0.209 0.322 1300 0.209 0.209 0.322 0.322
6.300 1300 0.210 0.323 1300 0.210 0.210 0.323 0.323
6.325 1300 0.211 0.324 1300 0.211 0.211 0.324 0.324
6.350 1300 0.212 0.326 1300 0.212 0.212 0.326 0.326
6.375 1300 0.212 0.327 1300 0.212 0.212 0.327 0.327
6.400 1300 0.213 0.328 1300 0.213 0.213 0.328 0.328
6.425 1300 0.214 0.329 1300 0.214 0.214 0.329 0.329
6.450 1300 0.215 0.331 1300 0.215 0.215 0.331 0.331
6.475 1300 0.216 0.332 1300 0.216 0.216 0.332 0.332
6.500 1300 0.217 0.333 1300 0.217 0.217 0.333 0.333
6.525 1300 0.217 0.335 1300 0.217 0.217 0.335 0.335
6.550 1400 0.218 0.312 1400 0.218 0.218 0.312 0.312
6.575 1400 0.219 0.313 1400 0.219 0.219 0.313 0.313
6.600 1400 0.220 0.314 1400 0.220 0.220 0.314 0.314
6.625 1400 0.221 0.315 1400 0.221 0.221 0.315 0.315
6.650 1400 0.222 0.317 1400 0.222 0.222 0.317 0.317
6.675 1400 0.223 0.318 1400 0.223 0.223 0.318 0.318
6.700 1400 0.223 0.319 1400 0.223 0.223 0.319 0.319
6.725 1400 0.224 0.320 1400 0.224 0.224 0.320 0.320
6.750 1400 0.225 0.321 1400 0.225 0.225 0.321 0.321
6.775 1400 0.226 0.323 1400 0.226 0.226 0.323 0.323
6.800 1400 0.227 0.324 1400 0.227 0.227 0.324 0.324
6.825 1400 0.228 0.325 1400 0.228 0.228 0.325 0.325
6.850 1400 0.228 0.326 1400 0.228 0.228 0.326 0.326
6.875 1400 0.229 0.327 1400 0.229 0.229 0.327 0.327
6.900 1400 0.230 0.329 1400 0.230 0.230 0.329 0.329
6.925 1400 0.231 0.330 1400 0.231 0.231 0.330 0.330
6.950 1400 0.232 0.331 1400 0.232 0.232 0.331 0.331
6.975 1400 0.233 0.332 1400 0.233 0.233 0.332 0.332
7.000 1400 0.233 0.333 1400 0.233 0.233 0.333 0.333
7.025 1400 0.234 0.335 1400 0.234 0.234 0.335 0.335
7.050 1300 0.235 0.362 1300 0.235 0.235 0.362 0.362
7.075 1300 0.236 0.363 1300 0.236 0.236 0.363 0.363
7.100 1300 0.237 0.364 1300 0.237 0.237 0.364 0.364
7.125 1300 0.237 0.365 1300 0.237 0.237 0.365 0.365
7.150 1300 0.238 0.367 1300 0.238 0.238 0.367 0.367
7.175 1300 0.239 0.368 1300 0.239 0.239 0.368 0.368
7.200 1300 0.240 0.369 1300 0.240 0.240 0.369 0.369
7.225 1300 0.241 0.371 1300 0.241 0.241 0.371 0.371
7.250 1300 0.242 0.372 1300 0.242 0.242 0.372 0.372
7.275 1300 0.242 0.373 1300 0.242 0.242 0.373 0.373
7.300 1300 0.243 0.374 1300 0.243 0.243 0.374 0.374
7.325 1300 0.244 0.376 1300 0.244 0.244 0.376 0.376
7.350 1300 0.245 0.377 1300 0.245 0.245 0.377 0.377
7.375 1300 0.246 0.378 1300 0.246 0.246 0.378 0.378
7.400 1300 0.247 0.379 1300 0.247 0.247 0.379 0.379
7.425 1300 0.247 0.381 1300 0.247 0.247 0.381 0.381
7.450 1300 0.248 0.382 1300 0.248 0.248 0.382 0.382
7.475 1300 0.249 0.383 1300 0.249 0.249 0.383 0.383
7.500 1300 0.250 0.385 1300 0.250 0.250 0.385 0.385
7.525 1300 0.251 0.386 1300 0.251 0.251 0.386 0.386
7.550 1200 0.252 0.419 1200 0.252 0.252 0.419 0.419
7.575 1200 0.253 0.421 1200 0.253 0.253 0.421 0.421
7.600 1200 0.253 0.422 1200 0.253 0.253 0.422 0.422
7.625 1200 0.254 0.424 1200 0.254 0.254 0.424 0.424
7.650 1200 0.255 0.425 1200 0.255 0.255 0.425 0.425
7.675 1200 0.256 0.426 1200 0.256 0.256 0.426 0.426
7.700 1200 0.257 0.428 1200 0.257 0.257 0.428 0.428
7.725 1200 0.258 0.429 1200 0.258 0.258 0.429 0.429
7.750 1200 0.258 0.431 1200 0.258 0.258 0.431 0.431
7.775 1200 0.259 0.432 1200 0.259 0.259 0.432 0.432
7.800 1200 0.260 0.433 1200 0.260 0.260 0.433 0.433
7.825 1200 0.261 0.435 1200 0.261 0.261 0.435 0.435
7.850 1200 0.262 0.436 1200 0.262 0.262 0.436 0.436
7.875 1200 0.263 0.438 1200 0.263 0.263 0.438 0.438
7.900 1200 0.263 0.439 1200 0.263 0.263 0.439 0.439
7.925 1200 0.264 0.440 1200 0.264 0.264 0.440 0.440
7.950 1200 0.265 0.442 1200 0.265 0.265 0.442 0.442
7.975 1200 0.266 0.443 1200 0.266 0.266 0.443 0.443
8.000 1200 0.267 0.444 1200 0.267 0.267 0.444 0.444
8.025 1200 0.268 0.446 1200 0.268 0.268 0.446 0.446
8.050 1200 0.268 0.447 1200 0.268 0.268 0.447 0.447
8.075 1200 0.269 0.449 1200 0.269 0.269 0.449 0.449
8.100 1200 0.270 0.450 1200 0.270 0.270 0.450 0.450
8.125 1200 0.271 0.451 1200 0.271 0.271 0.451 0.451
8.150 1200 0.272 0.453 1200 0.272 0.272 0.453 0.453
8.175 1200 0.273 0.454 1200 0.273 0.273 0.454 0.454
8.200 1200 0.273 0.456 1200 0.273 0.273 0.456 0.456
8.225 1200 0.274 0.457 1200 0.274 0.274 0.457 0.457
8.250 1200 0.275 0.458 1200 0.275 0.275 0.458 0.458
8.275 1200 0.276 0.460 1200 0.276 0.276 0.460 0.460
8.300 1200 0.277 0.461 1200 0.277 0.277 0.461 0.461
8.325 1200 0.278 0.463 1200 0.278 0.278 0.463 0.463
8.350 1200 0.278 0.464 1200 0.278 0.278 0.464 0.464
8.375 1200 0.279 0.465 1200 0.279 0.279 0.465 0.465
8.400 1200 0.280 0.467 1200 0.280 0.280 0.467 0.467
8.425 1200 0.281 0.468 1200 0.281 0.281 0.468 0.468
8.450 1200 0.282 0.469 1200 0.282 0.282 0.469 0.469
8.475 1200 0.282 0.471 1200 0.282 0.282 0.471 0.471
8.500 1200 0.283 0.472 1200 0.283 0.283 0.472 0.472
8.525 1200 0.284 0.474 1200 0.284 0.284 0.474 0.474
8.550 1300 0.285 0.438 1300 0.285 0.285 0.438 0.438
8.575 1300 0.286 0.440 1300 0.286 0.286 0.440 0.440
8.600 1300 0.287 0.441 1300 0.287 0.287 0.441 0.441
8.625 1300 0.287 0.442 1300 0.287 0.287 0.442 0.442
8.650 1300 0.288 0.444 1300 0.288 0.288 0.444 0.444
8.675 1300 0.289 0.445 1300 0.289 0.289 0.445 0.445
8.700 1300 0.290 0.446 1300 0.290 0.290 0.446 0.446
8.725 1300 0.291 0.447 1300 0.291 0.291 0.447 0.447
8.750 1300 0.292 0.449 1300 0.292 0.292 0.449 0.449
8.775 1300 0.292 0.450 1300 0.292 0.292 0.450 0.450
8.800 1300 0.293 0.451 1300 0.293 0.293 0.451 0.451
8.825 1300 0.294 0.453 1300 0.294 0.294 0.453 0.453
8.850 1300 0.295 0.454 1300 0.295 0.295 0.454 0.454
8.875 1300 0.296 0.455 1300 0.296 0.296 0.455 0.455
8.900 1300 0.297 0.456 1300 0.297 0.297 0.456 0.456
8.925 1300 0.297 0.458 1300 0.297 0.297 0.458 0.458
8.950 1300 0.298 0.459 1300 0.298 0.298 0.459 0.459
8.975 1300 0.299 0.460 1300 0.299 0.299 0.460 0.460
9.000 1300 0.300 0.462 1300 0.300 0.300 0.462 0.462
9.025 1300 0.301 0.463 1300 0.301 0.301 0.463 0.463
9.050 1500 0.302 0.402 1500 0.302 0.302 0.402 0.402
9.075 1500 0.302 0.403 1500 0.302 0.302 0.403 0.403
9.100 1500 0.303 0.404 1500 0.303 0.303 0.404 0.404
9.125 1500 0.304 0.406 1500 0.304 0.304 0.406 0.406
9.150 1500 0.305 0.407 1500 0.305 0.305 0.407 0.407
9.175 1500 0.306 0.408 1500 0.306 0.306 0.408 0.408
9.200 1500 0.307 0.409 1500 0.307 0.307 0.409 0.409
9.225 1500 0.307 0.410 1500 0.307 0.307 0.410 0.410
9.250 1500 0.308 0.411 1500 0.308 0.308 0.411 0.411
9.275 1500 0.309 0.412 1500 0.309 0.309 0.412 0.412
9.300 1500 0.310 0.413 1500 0.310 0.310 0.413 0.413
9.325 1500 0.311 0.414 1500 0.311 0.311 0.414 0.414
9.350 1500 0.312 0.416 1500 0.312 0.312 0.416 0.416
9.375 1500 0.312 0.417 1500 0.312 0.312 0.417 0.417
9.400 1500 0.313 0.418 1500 0.313 0.313 0.418 0.418
9.425 1500 0.314 0.419 1500 0.314 0.314 0.419 0.419
9.450 1500 0.315 0.420 1500 0.315 0.315 0.420 0.420
9.475 1500 0.316 0.421 1500 0.316 0.316 0.421 0.421
9.500 1500 0.317 0.422 1500 0.317 0.317 0.422 0.422
9.525 1500 0.318 0.423 1500 0.318 0.318 0.423 0.423
9.550 1700 0.318 0.375 1700 0.318 0.318 0.375 0.375
9.575 1700 0.319 0.375 1700 0.319 0.319 0.375 0.375
9.600 1700 0.320 0.376 1700 0.320 0.320 0.376 0.376
9.625 1700 0.321 0.377 1700 0.321 0.321 0.377 0.377
9.650 1700 0.322 0.378 1700 0.322 0.322 0.378 0.378
9.675 1700 0.323 0.379 1700 0.323 0.323 0.379 0.379
9.700 1700 0.323 0.380 1700 0.323 0.323 0.380 0.380
9.725 1700 0.324 0.381 1700 0.324 0.324 0.381 0.381
9.750 1700 0.325 0.382 1700 0.325 0.325 0.382 0.382
