time[s] cpu.0.freq[MHz] cpu.0.recload cpu.0.load max(freqs)[MHz] sum(recloads) max(recloads) sum(loads) max(loads)
0.025 2000 0.001 0.001 2000 0.001 0.001 0.001 0.001
0.050 2000 0.002 0.002 2000 0.002 0.002 0.002 0.002
0.075 2000 0.003 0.003 2000 0.003 0.003 0.003 0.003
0.100 2000 0.003 0.003 2000 0.003 0.003 0.003 0.003
0.125 2000 0.004 0.004 2000 0.004 0.004 0.004 0.004
0.150 2000 0.005 0.005 2000 0.005 0.005 0.005 0.005
0.175 2000 0.006 0.006 2000 0.006 0.006 0.006 0.006
0.200 2000 0.007 0.007 2000 0.007 0.007 0.007 0.007
0.225 2000 0.007 0.007 2000 0.007 0.007 0.007 0.007
0.250 2000 0.008 0.008 2000 0.008 0.008 0.008 0.008
0.275 2000 0.009 0.009 2000 0.009 0.009 0.009 0.009
0.300 1800 0.010 0.011 1800 0.010 0.010 0.011 0.011
0.325 1800 0.011 0.012 1800 0.011 0.011 0.012 0.012
0.350 1800 0.012 0.013 1800 0.012 0.012 0.013 0.013
0.375 1800 0.013 0.014 1800 0.013 0.013 0.014 0.014
0.400 1800 0.013 0.015 1800 0.013 0.013 0.015 0.015
0.425 1800 0.014 0.016 1800 0.014 0.014 0.016 0.016
0.450 1800 0.015 0.017 1800 0.015 0.015 0.017 0.017
0.475 1800 0.016 0.018 1800 0.016 0.016 0.018 0.018
0.500 1800 0.017 0.019 1800 0.017 0.017 0.019 0.019
0.525 1800 0.018 0.019 1800 0.018 0.018 0.019 0.019
0.550 1600 0.018 0.023 1600 0.018 0.018 0.023 0.023
0.575 1600 0.019 0.024 1600 0.019 0.019 0.024 0.024
0.600 1600 0.020 0.025 1600 0.020 0.020 0.025 0.025
0.625 1600 0.021 0.026 1600 0.021 0.021 0.026 0.026
0.650 1600 0.022 0.027 1600 0.022 0.022 0.027 0.027
0.675 1600 0.022 0.028 1600 0.022 0.022 0.028 0.028
0.700 1600 0.023 0.029 1600 0.023 0.023 0.029 0.029
0.725 1600 0.024 0.030 1600 0.024 0.024 0.030 0.030
0.750 1600 0.025 0.031 1600 0.025 0.025 0.031 0.031
0.775 1600 0.026 0.032 1600 0.026 0.026 0.032 0.032
0.800 1400 0.027 0.038 1400 0.027 0.027 0.038 0.038
0.825 1400 0.028 0.039 1400 0.028 0.028 0.039 0.039
0.850 1400 0.028 0.040 1400 0.028 0.028 0.040 0.040
0.875 1400 0.029 0.042 1400 0.029 0.029 0.042 0.042
0.900 1400 0.030 0.043 1400 0.030 0.030 0.043 0.043
0.925 1400 0.031 0.044 1400 0.031 0.031 0.044 0.044
0.950 1400 0.032 0.045 1400 0.032 0.032 0.045 0.045
0.975 1400 0.033 0.046 1400 0.033 0.033 0.046 0.046
1.000 1400 0.033 0.048 1400 0.033 0.033 0.048 0.048
1.025 1400 0.034 0.049 1400 0.034 0.034 0.049 0.049
1.050 1400 0.035 0.050 1400 0.035 0.035 0.050 0.050
1.075 1200 0.036 0.060 1200 0.036 0.036 0.060 0.060
1.100 1200 0.037 0.061 1200 0.037 0.037 0.061 0.061
1.125 1200 0.037 0.062 1200 0.037 0.037 0.062 0.062
1.150 1200 0.038 0.064 1200 0.038 0.038 0.064 0.064
1.175 1200 0.039 0.065 1200 0.039 0.039 0.065 0.065
1.200 1200 0.040 0.067 1200 0.040 0.040 0.067 0.067
1.225 1200 0.041 0.068 1200 0.041 0.041 0.068 0.068
1.250 1200 0.042 0.069 1200 0.042 0.042 0.069 0.069
1.275 1200 0.043 0.071 1200 0.043 0.043 0.071 0.071
1.300 1200 0.043 0.072 1200 0.043 0.043 0.072 0.072
1.325 1100 0.044 0.080 1100 0.044 0.044 0.080 0.080
1.350 1100 0.045 0.082 1100 0.045 0.045 0.082 0.082
1.375 1100 0.046 0.083 1100 0.046 0.046 0.083 0.083
1.400 1100 0.047 0.085 1100 0.047 0.047 0.085 0.085
1.425 1100 0.048 0.086 1100 0.048 0.048 0.086 0.086
1.450 1100 0.048 0.088 1100 0.048 0.048 0.088 0.088
1.475 1100 0.049 0.089 1100 0.049 0.049 0.089 0.089
1.500 1100 0.050 0.091 1100 0.050 0.050 0.091 0.091
1.525 1100 0.051 0.092 1100 0.051 0.051 0.092 0.092
1.550 1100 0.052 0.094 1100 0.052 0.052 0.094 0.094
1.575 900 0.052 0.117 900 0.052 0.052 0.117 0.117
1.600 900 0.053 0.119 900 0.053 0.053 0.119 0.119
1.625 900 0.054 0.120 900 0.054 0.054 0.120 0.120
1.650 900 0.055 0.122 900 0.055 0.055 0.122 0.122
1.675 900 0.056 0.124 900 0.056 0.056 0.124 0.124
1.700 900 0.057 0.126 900 0.057 0.057 0.126 0.126
1.725 900 0.058 0.128 900 0.058 0.058 0.128 0.128
1.750 900 0.058 0.130 900 0.058 0.058 0.130 0.130
1.775 900 0.059 0.131 900 0.059 0.059 0.131 0.131
1.800 900 0.060 0.133 900 0.060 0.060 0.133 0.133
1.825 900 0.061 0.135 900 0.061 0.061 0.135 0.135
1.850 800 0.062 0.154 800 0.062 0.062 0.154 0.154
1.875 800 0.062 0.156 800 0.062 0.062 0.156 0.156
1.900 800 0.063 0.158 800 0.063 0.063 0.158 0.158
1.925 800 0.064 0.160 800 0.064 0.064 0.160 0.160
1.950 800 0.065 0.163 800 0.065 0.065 0.163 0.163
1.975 800 0.066 0.165 800 0.066 0.066 0.165 0.165
2.000 800 0.067 0.167 800 0.067 0.067 0.167 0.167
2.025 800 0.068 0.169 800 0.068 0.068 0.169 0.169
2.050 800 0.068 0.171 800 0.068 0.068 0.171 0.171
2.075 800 0.069 0.173 800 0.069 0.069 0.173 0.173
2.100 700 0.070 0.200 700 0.070 0.070 0.200 0.200
2.125 700 0.071 0.202 700 0.071 0.071 0.202 0.202
2.150 700 0.072 0.205 700 0.072 0.072 0.205 0.205
2.175 700 0.072 0.207 700 0.072 0.072 0.207 0.207
2.200 700 0.073 0.210 700 0.073 0.073 0.210 0.210
2.225 700 0.074 0.212 700 0.074 0.074 0.212 0.212
2.250 700 0.075 0.214 700 0.075 0.075 0.214 0.214
2.275 700 0.076 0.217 700 0.076 0.076 0.217 0.217
2.300 700 0.077 0.219 700 0.077 0.077 0.219 0.219
2.325 700 0.077 0.221 700 0.077 0.077 0.221 0.221
2.350 600 0.078 0.261 600 0.078 0.078 0.261 0.261
2.375 600 0.079 0.264 600 0.079 0.079 0.264 0.264
2.400 600 0.080 0.267 600 0.080 0.080 0.267 0.267
2.425 600 0.081 0.269 600 0.081 0.081 0.269 0.269
2.450 600 0.082 0.272 600 0.082 0.082 0.272 0.272
2.475 600 0.083 0.275 600 0.083 0.083 0.275 0.275
2.500 600 0.083 0.278 600 0.083 0.083 0.278 0.278
2.525 600 0.084 0.281 600 0.084 0.084 0.281 0.281
2.550 600 0.085 0.283 600 0.085 0.085 0.283 0.283
2.575 600 0.086 0.286 600 0.086 0.086 0.286 0.286
2.600 600 0.087 0.289 600 0.087 0.087 0.289 0.289
2.625 600 0.087 0.292 600 0.087 0.087 0.292 0.292
2.650 600 0.088 0.294 600 0.088 0.088 0.294 0.294
2.675 600 0.089 0.297 600 0.089 0.089 0.297 0.297
2.700 600 0.090 0.300 600 0.090 0.090 0.300 0.300
2.725 600 0.091 0.303 600 0.091 0.091 0.303 0.303
2.750 600 0.092 0.306 600 0.092 0.092 0.306 0.306
2.775 600 0.092 0.308 600 0.092 0.092 0.308 0.308
2.800 600 0.093 0.311 600 0.093 0.093 0.311 0.311
2.825 600 0.094 0.314 600 0.094 0.094 0.314 0.314
2.850 600 0.095 0.317 600 0.095 0.095 0.317 0.317
2.875 500 0.096 0.383 500 0.096 0.096 0.383 0.383
2.900 500 0.097 0.387 500 0.097 0.097 0.387 0.387
2.925 500 0.098 0.390 500 0.098 0.098 0.390 0.390
2.950 500 0.098 0.393 500 0.098 0.098 0.393 0.393
2.975 500 0.099 0.397 500 0.099 0.099 0.397 0.397
3.000 500 0.100 0.400 500 0.100 0.100 0.400 0.400
3.025 500 0.101 0.403 500 0.101 0.101 0.403 0.403
3.050 500 0.102 0.407 500 0.102 0.102 0.407 0.407
3.075 500 0.102 0.410 500 0.102 0.102 0.410 0.410
3.100 500 0.103 0.413 500 0.103 0.103 0.413 0.413
3.125 500 0.104 0.417 500 0.104 0.104 0.417 0.417
3.150 500 0.105 0.420 500 0.105 0.105 0.420 0.420
3.175 500 0.106 0.423 500 0.106 0.106 0.423 0.423
3.200 500 0.107 0.427 500 0.107 0.107 0.427 0.427
3.225 500 0.107 0.430 500 0.107 0.107 0.430 0.430
3.250 500 0.108 0.433 500 0.108 0.108 0.433 0.433
3.275 500 0.109 0.437 500 0.109 0.109 0.437 0.437
3.300 500 0.110 0.440 500 0.110 0.110 0.440 0.440
3.325 500 0.111 0.443 500 0.111 0.111 0.443 0.443
3.350 500 0.112 0.447 500 0.112 0.112 0.447 0.447
3.375 500 0.113 0.450 500 0.113 0.113 0.450 0.450
3.400 500 0.113 0.453 500 0.113 0.113 0.453 0.453
3.425 500 0.114 0.457 500 0.114 0.114 0.457 0.457
3.450 500 0.115 0.460 500 0.115 0.115 0.460 0.460
3.475 500 0.116 0.463 500 0.116 0.116 0.463 0.463
3.500 500 0.117 0.467 500 0.117 0.117 0.467 0.467
3.525 500 0.117 0.470 500 0.117 0.117 0.470 0.470
3.550 500 0.118 0.473 500 0.118 0.118 0.473 0.473
3.575 500 0.119 0.477 500 0.119 0.119 0.477 0.477
3.600 500 0.120 0.480 500 0.120 0.120 0.480 0.480
3.625 500 0.121 0.483 500 0.121 0.121 0.483 0.483
3.650 500 0.122 0.487 500 0.122 0.122 0.487 0.487
3.675 500 0.122 0.490 500 0.122 0.122 0.490 0.490
3.700 500 0.123 0.493 500 0.123 0.123 0.493 0.493
3.725 500 0.124 0.497 500 0.124 0.124 0.497 0.497
3.750 500 0.125 0.500 500 0.125 0.125 0.500 0.500
3.775 500 0.126 0.503 500 0.126 0.126 0.503 0.503
3.800 500 0.127 0.507 500 0.127 0.127 0.507 0.507
3.825 500 0.128 0.510 500 0.128 0.128 0.510 0.510
3.850 500 0.128 0.513 500 0.128 0.128 0.513 0.513
3.875 500 0.129 0.517 500 0.129 0.129 0.517 0.517
3.900 500 0.130 0.520 500 0.130 0.130 0.520 0.520
3.925 500 0.131 0.523 500 0.131 0.131 0.523 0.523
3.950 500 0.132 0.527 500 0.132 0.132 0.527 0.527
3.975 500 0.133 0.530 500 0.133 0.133 0.530 0.530
4.000 500 0.133 0.533 500 0.133 0.133 0.533 0.533
4.025 500 0.134 0.537 500 0.134 0.134 0.537 0.537
4.050 500 0.135 0.540 500 0.135 0.135 0.540 0.540
4.075 500 0.136 0.543 500 0.136 0.136 0.543 0.543
4.100 500 0.137 0.547 500 0.137 0.137 0.547 0.547
4.125 500 0.138 0.550 500 0.138 0.138 0.550 0.550
4.150 500 0.138 0.553 500 0.138 0.138 0.553 0.553
4.175 500 0.139 0.557 500 0.139 0.139 0.557 0.557
4.200 500 0.140 0.560 500 0.140 0.140 0.560 0.560
4.225 500 0.141 0.563 500 0.141 0.141 0.563 0.563
4.250 500 0.142 0.567 500 0.142 0.142 0.567 0.567
4.275 500 0.142 0.570 500 0.142 0.142 0.570 0.570
4.300 500 0.143 0.573 500 0.143 0.143 0.573 0.573
4.325 500 0.144 0.577 500 0.144 0.144 0.577 0.577
4.350 500 0.145 0.580 500 0.145 0.145 0.580 0.580
4.375 500 0.146 0.583 500 0.146 0.146 0.583 0.583
4.400 500 0.147 0.587 500 0.147 0.147 0.587 0.587
4.425 500 0.147 0.590 500 0.147 0.147 0.590 0.590
4.450 500 0.148 0.593 500 0.148 0.148 0.593 0.593
4.475 500 0.149 0.597 500 0.149 0.149 0.597 0.597
4.500 500 0.150 0.600 500 0.150 0.150 0.600 0.600
4.525 500 0.151 0.603 500 0.151 0.151 0.603 0.603
4.550 500 0.152 0.607 500 0.152 0.152 0.607 0.607
4.575 500 0.152 0.610 500 0.152 0.152 0.610 0.610
4.600 500 0.153 0.613 500 0.153 0.153 0.613 0.613
4.625 500 0.154 0.617 500 0.154 0.154 0.617 0.617
4.650 500 0.155 0.620 500 0.155 0.155 0.620 0.620
4.675 500 0.156 0.623 500 0.156 0.156 0.623 0.623
4.700 500 0.157 0.627 500 0.157 0.157 0.627 0.627
4.725 500 0.158 0.630 500 0.158 0.158 0.630 0.630
4.750 500 0.158 0.633 500 0.158 0.158 0.633 0.633
4.775 500 0.159 0.637 500 0.159 0.159 0.637 0.637
4.800 500 0.160 0.640 500 0.160 0.160 0.640 0.640
4.825 500 0.161 0.643 500 0.161 0.161 0.643 0.643
4.850 500 0.162 0.647 500 0.162 0.162 0.647 0.647
4.875 500 0.163 0.650 500 0.163 0.163 0.650 0.650
4.900 500 0.163 0.653 500 0.163 0.163 0.653 0.653
4.925 500 0.164 0.657 500 0.164 0.164 0.657 0.657
4.950 500 0.165 0.660 500 0.165 0.165 0.660 0.660
4.975 500 0.166 0.663 500 0.166 0.166 0.663 0.663
5.000 500 0.167 0.667 500 0.167 0.167 0.667 0.667
5.025 500 0.168 0.670 500 0.168 0.168 0.670 0.670
5.050 500 0.168 0.673 500 0.168 0.168 0.673 0.673
5.075 500 0.169 0.677 500 0.169 0.169 0.677 0.677
5.100 500 0.170 0.680 500 0.170 0.170 0.680 0.680
5.125 500 0.171 0.683 500 0.171 0.171 0.683 0.683
5.150 500 0.172 0.687 500 0.172 0.172 0.687 0.687
5.175 500 0.172 0.690 500 0.172 0.172 0.690 0.690
5.200 500 0.173 0.693 500 0.173 0.173 0.693 0.693
5.225 500 0.174 0.697 500 0.174 0.174 0.697 0.697
5.250 500 0.175 0.700 500 0.175 0.175 0.700 0.700
5.275 500 0.176 0.703 500 0.176 0.176 0.703 0.703
5.300 500 0.177 0.707 500 0.177 0.177 0.707 0.707
5.325 500 0.177 0.710 500 0.177 0.177 0.710 0.710
5.350 500 0.178 0.713 500 0.178 0.178 0.713 0.713
5.375 500 0.179 0.717 500 0.179 0.179 0.717 0.717
5.400 500 0.180 0.720 500 0.180 0.180 0.720 0.720
5.425 500 0.181 0.723 500 0.181 0.181 0.723 0.723
5.450 500 0.182 0.727 500 0.182 0.182 0.727 0.727
5.475 500 0.182 0.730 500 0.182 0.182 0.730 0.730
5.500 500 0.183 0.733 500 0.183 0.183 0.733 0.733
5.525 500 0.184 0.737 500 0.184 0.184 0.737 0.737
5.550 500 0.185 0.740 500 0.185 0.185 0.740 0.740
5.575 500 0.186 0.743 500 0.186 0.186 0.743 0.743
5.600 500 0.187 0.747 500 0.187 0.187 0.747 0.747
5.625 500 0.188 0.750 500 0.188 0.188 0.750 0.750
5.650 500 0.188 0.753 500 0.188 0.188 0.753 0.753
5.675 500 0.189 0.757 500 0.189 0.189 0.757 0.757
5.700 500 0.190 0.760 500 0.190 0.190 0.760 0.760
5.725 500 0.191 0.763 500 0.191 0.191 0.763 0.763
5.750 500 0.192 0.767 500 0.192 0.192 0.767 0.767
5.775 500 0.193 0.770 500 0.193 0.193 0.770 0.770
5.800 500 0.193 0.773 500 0.193 0.193 0.773 0.773
5.825 500 0.194 0.777 500 0.194 0.194 0.777 0.777
5.850 500 0.195 0.780 500 0.195 0.195 0.780 0.780
5.875 500 0.196 0.783 500 0.196 0.196 0.783 0.783
5.900 500 0.197 0.787 500 0.197 0.197 0.787 0.787
5.925 500 0.198 0.790 500 0.198 0.198 0.790 0.790
5.950 500 0.198 0.793 500 0.198 0.198 0.793 0.793
5.975 500 0.199 0.797 500 0.199 0.199 0.797 0.797
6.000 600 0.200 0.667 600 0.200 0.200 0.667 0.667
6.025 600 0.201 0.669 600 0.201 0.201 0.669 0.669
6.050 600 0.202 0.672 600 0.202 0.202 0.672 0.672
6.075 600 0.203 0.675 600 0.203 0.203 0.675 0.675
6.100 600 0.203 0.678 600 0.203 0.203 0.678 0.678
6.125 600 0.204 0.681 600 0.204 0.204 0.681 0.681
6.150 600 0.205 0.683 600 0.205 0.205 0.683 0.683
6.175 600 0.206 0.686 600 0.206 0.206 0.686 0.686
6.200 600 0.207 0.689 600 0.207 0.207 0.689 0.689
6.225 600 0.207 0.692 600 0.207 0.207 0.692 0.692
6.250 600 0.208 0.694 600 0.208 0.208 0.694 0.694
6.275 600 0.209 0.697 600 0.209 0.209 0.697 0.697
6.300 600 0.210 0.700 600 0.210 0.210 0.700 0.700
6.325 600 0.211 0.703 600 0.211 0.211 0.703 0.703
6.350 600 0.212 0.706 600 0.212 0.212 0.706 0.706
6.375 600 0.212 0.708 600 0.212 0.212 0.708 0.708
6.400 600 0.213 0.711 600 0.213 0.213 0.711 0.711
6.425 600 0.214 0.714 600 0.214 0.214 0.714 0.714
6.450 600 0.215 0.717 600 0.215 0.215 0.717 0.717
6.475 600 0.216 0.719 600 0.216 0.216 0.719 0.719
6.500 600 0.217 0.722 600 0.217 0.217 0.722 0.722
6.525 600 0.217 0.725 600 0.217 0.217 0.725 0.725
6.550 600 0.218 0.728 600 0.218 0.218 0.728 0.728
6.575 600 0.219 0.731 600 0.219 0.219 0.731 0.731
6.600 600 0.220 0.733 600 0.220 0.220 0.733 0.733
6.625 600 0.221 0.736 600 0.221 0.221 0.736 0.736
6.650 600 0.222 0.739 600 0.222 0.222 0.739 0.739
6.675 600 0.223 0.742 600 0.223 0.223 0.742 0.742
6.700 600 0.223 0.744 600 0.223 0.223 0.744 0.744
6.725 600 0.224 0.747 600 0.224 0.224 0.747 0.747
6.750 600 0.225 0.750 600 0.225 0.225 0.750 0.750
6.775 600 0.226 0.753 600 0.226 0.226 0.753 0.753
6.800 600 0.227 0.756 600 0.227 0.227 0.756 0.756
6.825 600 0.228 0.758 600 0.228 0.228 0.758 0.758
6.850 600 0.228 0.761 600 0.228 0.228 0.761 0.761
6.875 600 0.229 0.764 600 0.229 0.229 0.764 0.764
6.900 600 0.230 0.767 600 0.230 0.230 0.767 0.767
6.925 600 0.231 0.769 600 0.231 0.231 0.769 0.769
6.950 600 0.232 0.772 600 0.232 0.232 0.772 0.772
6.975 600 0.233 0.775 600 0.233 0.233 0.775 0.775
7.000 600 0.233 0.778 600 0.233 0.233 0.778 0.778
7.025 600 0.234 0.781 600 0.234 0.234 0.781 0.781
7.050 600 0.235 0.783 600 0.235 0.235 0.783 0.783
7.075 600 0.236 0.786 600 0.236 0.236 0.786 0.786
7.100 600 0.237 0.789 600 0.237 0.237 0.789 0.789
7.125 600 0.237 0.792 600 0.237 0.237 0.792 0.792
7.150 600 0.238 0.794 600 0.238 0.238 0.794 0.794
7.175 600 0.239 0.797 600 0.239 0.239 0.797 0.797
7.200 600 0.240 0.800 600 0.240 0.240 0.800 0.800
7.225 600 0.241 0.803 600 0.241 0.241 0.803 0.803
7.250 600 0.242 0.806 600 0.242 0.242 0.806 0.806
7.275 600 0.242 0.808 600 0.242 0.242 0.808 0.808
7.300 600 0.243 0.811 600 0.243 0.243 0.811 0.811
7.325 600 0.244 0.814 600 0.244 0.244 0.814 0.814
7.350 600 0.245 0.817 600 0.245 0.245 0.817 0.817
7.375 600 0.246 0.819 600 0.246 0.246 0.819 0.819
7.400 600 0.247 0.822 600 0.247 0.247 0.822 0.822
7.425 600 0.247 0.825 600 0.247 0.247 0.825 0.825
7.450 600 0.248 0.828 600 0.248 0.248 0.828 0.828
7.475 600 0.249 0.831 600 0.249 0.249 0.831 0.831
7.500 600 0.250 0.833 600 0.250 0.250 0.833 0.833
7.525 600 0.251 0.836 600 0.251 0.251 0.836 0.836
7.550 700 0.252 0.719 700 0.252 0.252 0.719 0.719
7.575 700 0.253 0.721 700 0.253 0.253 0.721 0.721
7.600 700 0.253 0.724 700 0.253 0.253 0.724 0.724
7.625 700 0.254 0.726 700 0.254 0.254 0.726 0.726
7.650 700 0.255 0.729 700 0.255 0.255 0.729 0.729
7.675 700 0.256 0.731 700 0.256 0.256 0.731 0.731
7.700 700 0.257 0.733 700 0.257 0.257 0.733 0.733
7.725 700 0.258 0.736 700 0.258 0.258 0.736 0.736
7.750 700 0.258 0.738 700 0.258 0.258 0.738 0.738
7.775 700 0.259 0.740 700 0.259 0.259 0.740 0.740
7.800 700 0.260 0.743 700 0.260 0.260 0.743 0.743
7.825 700 0.261 0.745 700 0.261 0.261 0.745 0.745
7.850 700 0.262 0.748 700 0.262 0.262 0.748 0.748
7.875 700 0.263 0.750 700 0.263 0.263 0.750 0.750
7.900 700 0.263 0.752 700 0.263 0.263 0.752 0.752
7.925 700 0.264 0.755 700 0.264 0.264 0.755 0.755
7.950 700 0.265 0.757 700 0.265 0.265 0.757 0.757
7.975 700 0.266 0.760 700 0.266 0.266 0.760 0.760
8.000 700 0.267 0.762 700 0.267 0.267 0.762 0.762
8.025 700 0.268 0.764 700 0.268 0.268 0.764 0.764
8.050 700 0.268 0.767 700 0.268 0.268 0.767 0.767
8.075 700 0.269 0.769 700 0.269 0.269 0.769 0.769
8.100 700 0.270 0.771 700 0.270 0.270 0.771 0.771
8.125 700 0.271 0.774 700 0.271 0.271 0.774 0.774
8.150 700 0.272 0.776 700 0.272 0.272 0.776 0.776
8.175 700 0.273 0.779 700 0.273 0.273 0.779 0.779
8.200 700 0.273 0.781 700 0.273 0.273 0.781 0.781
8.225 700 0.274 0.783 700 0.274 0.274 0.783 0.783
8.250 700 0.275 0.786 700 0.275 0.275 0.786 0.786
8.275 700 0.276 0.788 700 0.276 0.276 0.788 0.788
8.300 700 0.277 0.790 700 0.277 0.277 0.790 0.790
8.325 700 0.278 0.793 700 0.278 0.278 0.793 0.793
8.350 700 0.278 0.795 700 0.278 0.278 0.795 0.795
8.375 700 0.279 0.798 700 0.279 0.279 0.798 0.798
8.400 700 0.280 0.800 700 0.280 0.280 0.800 0.800
8.425 700 0.281 0.802 700 0.281 0.281 0.802 0.802
8.450 700 0.282 0.805 700 0.282 0.282 0.805 0.805
8.475 700 0.282 0.807 700 0.282 0.282 0.807 0.807
8.500 700 0.283 0.810 700 0.283 0.283 0.810 0.810
8.525 700 0.284 0.812 700 0.284 0.284 0.812 0.812
8.550 700 0.285 0.814 700 0.285 0.285 0.814 0.814
8.575 700 0.286 0.817 700 0.286 0.286 0.817 0.817
8.600 800 0.287 0.717 800 0.287 0.287 0.717 0.717
8.625 800 0.287 0.719 800 0.287 0.287 0.719 0.719
8.650 800 0.288 0.721 800 0.288 0.288 0.721 0.721
8.675 800 0.289 0.723 800 0.289 0.289 0.723 0.723
8.700 800 0.290 0.725 800 0.290 0.290 0.725 0.725
8.725 800 0.291 0.727 800 0.291 0.291 0.727 0.727
8.750 800 0.292 0.729 800 0.292 0.292 0.729 0.729
8.775 800 0.292 0.731 800 0.292 0.292 0.731 0.731
8.800 800 0.293 0.733 800 0.293 0.293 0.733 0.733
8.825 800 0.294 0.735 800 0.294 0.294 0.735 0.735
8.850 800 0.295 0.738 800 0.295 0.295 0.738 0.738
8.875 800 0.296 0.740 800 0.296 0.296 0.740 0.740
8.900 800 0.297 0.742 800 0.297 0.297 0.742 0.742
8.925 800 0.297 0.744 800 0.297 0.297 0.744 0.744
8.950 800 0.298 0.746 800 0.298 0.298 0.746 0.746
8.975 800 0.299 0.748 800 0.299 0.299 0.748 0.748
9.000 800 0.300 0.750 800 0.300 0.300 0.750 0.750
9.025 800 0.301 0.752 800 0.301 0.301 0.752 0.752
9.050 800 0.302 0.754 800 0.302 0.302 0.754 0.754
9.075 800 0.302 0.756 800 0.302 0.302 0.756 0.756
9.100 800 0.303 0.758 800 0.303 0.303 0.758 0.758
9.125 800 0.304 0.760 800 0.304 0.304 0.760 0.760
9.150 800 0.305 0.762 800 0.305 0.305 0.762 0.762
9.175 800 0.306 0.765 800 0.306 0.306 0.765 0.765
9.200 800 0.307 0.767 800 0.307 0.307 0.767 0.767
9.225 800 0.307 0.769 800 0.307 0.307 0.769 0.769
9.250 800 0.308 0.771 800 0.308 0.308 0.771 0.771
9.275 800 0.309 0.773 800 0.309 0.309 0.773 0.773
9.300 800 0.310 0.775 800 0.310 0.310 0.775 0.775
9.325 800 0.311 0.777 800 0.311 0.311 0.777 0.777
9.350 800 0.312 0.779 800 0.312 0.312 0.779 0.779
9.375 800 0.312 0.781 800 0.312 0.312 0.781 0.781
9.400 800 0.313 0.783 800 0.313 0.313 0.783 0.783
9.425 800 0.314 0.785 800 0.314 0.314 0.785 0.785
9.450 800 0.315 0.787 800 0.315 0.315 0.787 0.787
9.475 800 0.316 0.790 800 0.316 0.316 0.790 0.790
9.500 800 0.317 0.792 800 0.317 0.317 0.792 0.792
9.525 800 0.318 0.794 800 0.318 0.318 0.794 0.794
9.550 800 0.318 0.796 800 0.318 0.318 0.796 0.796
9.575 800 0.319 0.798 800 0.319 0.319 0.798 0.798
9.600 800 0.320 0.800 800 0.320 0.320 0.800 0.800
9.625 800 0.321 0.802 800 0.321 0.321 0.802 0.802
9.650 800 0.322 0.804 800 0.322 0.322 0.804 0.804
9.675 800 0.323 0.806 800 0.323 0.323 0.806 0.806
9.700 800 0.323 0.808 800 0.323 0.323 0.808 0.808
9.725 800 0.324 0.810 800 0.324 0.324 0.810 0.810
9.750 800 0.325 0.812 800 0.325 0.325 0.812 0.812
9.775 800 0.326 0.815 800 0.326 0.326 0.815 0.815
9.800 800 0.327 0.817 800 0.327 0.327 0.817 0.817
9.825 800 0.328 0.819 800 0.328 0.328 0.819 0.819
9.850 800 0.328 0.821 800 0.328 0.328 0.821 0.821
9.875 800 0.329 0.823 800 0.329 0.329 0.823 0.823
