time[s] cpu.0.freq[MHz] cpu.0.recload cpu.0.load max(freqs)[MHz] sum(recloads) max(recloads) sum(loads) max(loads)
0.025 2000 0.001 0.001 2000 0.001 0.001 0.001 0.001
0.050 2000 0.002 0.002 2000 0.002 0.002 0.002 0.002
0.075 2000 0.003 0.003 2000 0.003 0.003 0.003 0.003
0.100 2000 0.003 0.003 2000 0.003 0.003 0.003 0.003
0.125 2000 0.004 0.004 2000 0.004 0.004 0.004 0.004
0.150 2000 0.005 0.005 2000 0.005 0.005 0.005 0.005
0.175 2000 0.006 0.006 2000 0.006 0.006 0.006 0.006
0.200 2000 0.007 0.007 2000 0.007 0.007 0.007 0.007
0.225 2000 0.007 0.007 2000 0.007 0.007 0.007 0.007
0.250 2000 0.008 0.008 2000 0.008 0.008 0.008 0.008
0.275 2000 0.009 0.009 2000 0.009 0.009 0.009 0.009
0.300 2000 0.010 0.010 2000 0.010 0.010 0.010 0.010
0.325 2000 0.011 0.011 2000 0.011 0.011 0.011 0.011
0.350 2000 0.012 0.012 2000 0.012 0.012 0.012 0.012
0.375 2000 0.013 0.013 2000 0.013 0.013 0.013 0.013
0.400 2000 0.013 0.013 2000 0.013 0.013 0.013 0.013
0.425 2000 0.014 0.014 2000 0.014 0.014 0.014 0.014
0.450 2000 0.015 0.015 2000 0.015 0.015 0.015 0.015
0.475 2000 0.016 0.016 2000 0.016 0.016 0.016 0.016
0.500 2000 0.017 0.017 2000 0.017 0.017 0.017 0.017
0.525 2000 0.018 0.018 2000 0.018 0.018 0.018 0.018
0.550 500 0.018 0.073 500 0.018 0.018 0.073 0.073
0.575 500 0.019 0.077 500 0.019 0.019 0.077 0.077
0.600 500 0.020 0.080 500 0.020 0.020 0.080 0.080
0.625 500 0.021 0.083 500 0.021 0.021 0.083 0.083
0.650 500 0.022 0.087 500 0.022 0.022 0.087 0.087
0.675 500 0.022 0.090 500 0.022 0.022 0.090 0.090
0.700 500 0.023 0.093 500 0.023 0.023 0.093 0.093
0.725 500 0.024 0.097 500 0.024 0.024 0.097 0.097
0.750 500 0.025 0.100 500 0.025 0.025 0.100 0.100
0.775 500 0.026 0.103 500 0.026 0.026 0.103 0.103
0.800 500 0.027 0.107 500 0.027 0.027 0.107 0.107
0.825 500 0.028 0.110 500 0.028 0.028 0.110 0.110
0.850 500 0.028 0.113 500 0.028 0.028 0.113 0.113
0.875 500 0.029 0.117 500 0.029 0.029 0.117 0.117
0.900 500 0.030 0.120 500 0.030 0.030 0.120 0.120
0.925 500 0.031 0.123 500 0.031 0.031 0.123 0.123
0.950 500 0.032 0.127 500 0.032 0.032 0.127 0.127
0.975 500 0.033 0.130 500 0.033 0.033 0.130 0.130
1.000 500 0.033 0.133 500 0.033 0.033 0.133 0.133
1.025 500 0.034 0.137 500 0.034 0.034 0.137 0.137
1.050 500 0.035 0.140 500 0.035 0.035 0.140 0.140
1.075 500 0.036 0.143 500 0.036 0.036 0.143 0.143
1.100 500 0.037 0.147 500 0.037 0.037 0.147 0.147
1.125 500 0.037 0.150 500 0.037 0.037 0.150 0.150
1.150 500 0.038 0.153 500 0.038 0.038 0.153 0.153
1.175 500 0.039 0.157 500 0.039 0.039 0.157 0.157
1.200 500 0.040 0.160 500 0.040 0.040 0.160 0.160
1.225 500 0.041 0.163 500 0.041 0.041 0.163 0.163
1.250 500 0.042 0.167 500 0.042 0.042 0.167 0.167
1.275 500 0.043 0.170 500 0.043 0.043 0.170 0.170
1.300 500 0.043 0.173 500 0.043 0.043 0.173 0.173
1.325 500 0.044 0.177 500 0.044 0.044 0.177 0.177
1.350 500 0.045 0.180 500 0.045 0.045 0.180 0.180
1.375 500 0.046 0.183 500 0.046 0.046 0.183 0.183
1.400 500 0.047 0.187 500 0.047 0.047 0.187 0.187
1.425 500 0.048 0.190 500 0.048 0.048 0.190 0.190
1.450 500 0.048 0.193 500 0.048 0.048 0.193 0.193
1.475 500 0.049 0.197 500 0.049 0.049 0.197 0.197
1.500 500 0.050 0.200 500 0.050 0.050 0.200 0.200
1.525 500 0.051 0.203 500 0.051 0.051 0.203 0.203
1.550 500 0.052 0.207 500 0.052 0.052 0.207 0.207
1.575 500 0.052 0.210 500 0.052 0.052 0.210 0.210
1.600 500 0.053 0.213 500 0.053 0.053 0.213 0.213
1.625 500 0.054 0.217 500 0.054 0.054 0.217 0.217
1.650 500 0.055 0.220 500 0.055 0.055 0.220 0.220
1.675 500 0.056 0.223 500 0.056 0.056 0.223 0.223
1.700 500 0.057 0.227 500 0.057 0.057 0.227 0.227
1.725 500 0.058 0.230 500 0.058 0.058 0.230 0.230
1.750 500 0.058 0.233 500 0.058 0.058 0.233 0.233
1.775 500 0.059 0.237 500 0.059 0.059 0.237 0.237
1.800 500 0.060 0.240 500 0.060 0.060 0.240 0.240
1.825 500 0.061 0.243 500 0.061 0.061 0.243 0.243
1.850 500 0.062 0.247 500 0.062 0.062 0.247 0.247
1.875 500 0.062 0.250 500 0.062 0.062 0.250 0.250
1.900 500 0.063 0.253 500 0.063 0.063 0.253 0.253
1.925 500 0.064 0.257 500 0.064 0.064 0.257 0.257
1.950 500 0.065 0.260 500 0.065 0.065 0.260 0.260
1.975 500 0.066 0.263 500 0.066 0.066 0.263 0.263
2.000 500 0.067 0.267 500 0.067 0.067 0.267 0.267
2.025 500 0.068 0.270 500 0.068 0.068 0.270 0.270
2.050 500 0.068 0.273 500 0.068 0.068 0.273 0.273
2.075 500 0.069 0.277 500 0.069 0.069 0.277 0.277
2.100 500 0.070 0.280 500 0.070 0.070 0.280 0.280
2.125 500 0.071 0.283 500 0.071 0.071 0.283 0.283
2.150 500 0.072 0.287 500 0.072 0.072 0.287 0.287
2.175 500 0.072 0.290 500 0.072 0.072 0.290 0.290
2.200 500 0.073 0.293 500 0.073 0.073 0.293 0.293
2.225 500 0.074 0.297 500 0.074 0.074 0.297 0.297
2.250 500 0.075 0.300 500 0.075 0.075 0.300 0.300
2.275 500 0.076 0.303 500 0.076 0.076 0.303 0.303
2.300 500 0.077 0.307 500 0.077 0.077 0.307 0.307
2.325 500 0.077 0.310 500 0.077 0.077 0.310 0.310
2.350 500 0.078 0.313 500 0.078 0.078 0.313 0.313
2.375 500 0.079 0.317 500 0.079 0.079 0.317 0.317
2.400 500 0.080 0.320 500 0.080 0.080 0.320 0.320
2.425 500 0.081 0.323 500 0.081 0.081 0.323 0.323
2.450 500 0.082 0.327 500 0.082 0.082 0.327 0.327
2.475 500 0.083 0.330 500 0.083 0.083 0.330 0.330
2.500 500 0.083 0.333 500 0.083 0.083 0.333 0.333
2.525 500 0.084 0.337 500 0.084 0.084 0.337 0.337
2.550 500 0.085 0.340 500 0.085 0.085 0.340 0.340
2.575 500 0.086 0.343 500 0.086 0.086 0.343 0.343
2.600 500 0.087 0.347 500 0.087 0.087 0.347 0.347
2.625 500 0.087 0.350 500 0.087 0.087 0.350 0.350
2.650 500 0.088 0.353 500 0.088 0.088 0.353 0.353
2.675 500 0.089 0.357 500 0.089 0.089 0.357 0.357
2.700 500 0.090 0.360 500 0.090 0.090 0.360 0.360
2.725 500 0.091 0.363 500 0.091 0.091 0.363 0.363
2.750 500 0.092 0.367 500 0.092 0.092 0.367 0.367
2.775 500 0.092 0.370 500 0.092 0.092 0.370 0.370
2.800 500 0.093 0.373 500 0.093 0.093 0.373 0.373
2.825 500 0.094 0.377 500 0.094 0.094 0.377 0.377
2.850 500 0.095 0.380 500 0.095 0.095 0.380 0.380
2.875 500 0.096 0.383 500 0.096 0.096 0.383 0.383
2.900 500 0.097 0.387 500 0.097 0.097 0.387 0.387
2.925 500 0.098 0.390 500 0.098 0.098 0.390 0.390
2.950 500 0.098 0.393 500 0.098 0.098 0.393 0.393
2.975 500 0.099 0.397 500 0.099 0.099 0.397 0.397
3.000 500 0.100 0.400 500 0.100 0.100 0.400 0.400
3.025 500 0.101 0.403 500 0.101 0.101 0.403 0.403
3.050 500 0.102 0.407 500 0.102 0.102 0.407 0.407
3.075 500 0.102 0.410 500 0.102 0.102 0.410 0.410
3.100 500 0.103 0.413 500 0.103 0.103 0.413 0.413
3.125 500 0.104 0.417 500 0.104 0.104 0.417 0.417
3.150 500 0.105 0.420 500 0.105 0.105 0.420 0.420
3.175 500 0.106 0.423 500 0.106 0.106 0.423 0.423
3.200 500 0.107 0.427 500 0.107 0.107 0.427 0.427
3.225 500 0.107 0.430 500 0.107 0.107 0.430 0.430
3.250 500 0.108 0.433 500 0.108 0.108 0.433 0.433
3.275 500 0.109 0.437 500 0.109 0.109 0.437 0.437
3.300 500 0.110 0.440 500 0.110 0.110 0.440 0.440
3.325 500 0.111 0.443 500 0.111 0.111 0.443 0.443
3.350 500 0.112 0.447 500 0.112 0.112 0.447 0.447
3.375 500 0.113 0.450 500 0.113 0.113 0.450 0.450
3.400 500 0.113 0.453 500 0.113 0.113 0.453 0.453
3.425 500 0.114 0.457 500 0.114 0.114 0.457 0.457
3.450 500 0.115 0.460 500 0.115 0.115 0.460 0.460
3.475 500 0.116 0.463 500 0.116 0.116 0.463 0.463
3.500 500 0.117 0.467 500 0.117 0.117 0.467 0.467
3.525 500 0.117 0.470 500 0.117 0.117 0.470 0.470
3.550 500 0.118 0.473 500 0.118 0.118 0.473 0.473
3.575 500 0.119 0.477 500 0.119 0.119 0.477 0.477
3.600 500 0.120 0.480 500 0.120 0.120 0.480 0.480
3.625 500 0.121 0.483 500 0.121 0.121 0.483 0.483
3.650 500 0.122 0.487 500 0.122 0.122 0.487 0.487
3.675 500 0.122 0.490 500 0.122 0.122 0.490 0.490
3.700 500 0.123 0.493 500 0.123 0.123 0.493 0.493
3.725 500 0.124 0.497 500 0.124 0.124 0.497 0.497
3.750 500 0.125 0.500 500 0.125 0.125 0.500 0.500
3.775 500 0.126 0.503 500 0.126 0.126 0.503 0.503
3.800 500 0.127 0.507 500 0.127 0.127 0.507 0.507
3.825 500 0.128 0.510 500 0.128 0.128 0.510 0.510
3.850 500 0.128 0.513 500 0.128 0.128 0.513 0.513
3.875 500 0.129 0.517 500 0.129 0.129 0.517 0.517
3.900 500 0.130 0.520 500 0.130 0.130 0.520 0.520
3.925 500 0.131 0.523 500 0.131 0.131 0.523 0.523
3.950 500 0.132 0.527 500 0.132 0.132 0.527 0.527
3.975 500 0.133 0.530 500 0.133 0.133 0.530 0.530
4.000 500 0.133 0.533 500 0.133 0.133 0.533 0.533
4.025 500 0.134 0.537 500 0.134 0.134 0.537 0.537
4.050 500 0.135 0.540 500 0.135 0.135 0.540 0.540
4.075 500 0.136 0.543 500 0.136 0.136 0.543 0.543
4.100 500 0.137 0.547 500 0.137 0.137 0.547 0.547
4.125 500 0.138 0.550 500 0.138 0.138 0.550 0.550
4.150 500 0.138 0.553 500 0.138 0.138 0.553 0.553
4.175 500 0.139 0.557 500 0.139 0.139 0.557 0.557
4.200 500 0.140 0.560 500 0.140 0.140 0.560 0.560
4.225 500 0.141 0.563 500 0.141 0.141 0.563 0.563
4.250 500 0.142 0.567 500 0.142 0.142 0.567 0.567
4.275 500 0.142 0.570 500 0.142 0.142 0.570 0.570
4.300 500 0.143 0.573 500 0.143 0.143 0.573 0.573
4.325 500 0.144 0.577 500 0.144 0.144 0.577 0.577
4.350 500 0.145 0.580 500 0.145 0.145 0.580 0.580
4.375 500 0.146 0.583 500 0.146 0.146 0.583 0.583
4.400 500 0.147 0.587 500 0.147 0.147 0.587 0.587
4.425 500 0.147 0.590 500 0.147 0.147 0.590 0.590
4.450 500 0.148 0.593 500 0.148 0.148 0.593 0.593
4.475 500 0.149 0.597 500 0.149 0.149 0.597 0.597
4.500 500 0.150 0.600 500 0.150 0.150 0.600 0.600
4.525 500 0.151 0.603 500 0.151 0.151 0.603 0.603
4.550 500 0.152 0.607 500 0.152 0.152 0.607 0.607
4.575 500 0.152 0.610 500 0.152 0.152 0.610 0.610
4.600 500 0.153 0.613 500 0.153 0.153 0.613 0.613
4.625 500 0.154 0.617 500 0.154 0.154 0.617 0.617
4.650 500 0.155 0.620 500 0.155 0.155 0.620 0.620
4.675 500 0.156 0.623 500 0.156 0.156 0.623 0.623
4.700 500 0.157 0.627 500 0.157 0.157 0.627 0.627
4.725 500 0.158 0.630 500 0.158 0.158 0.630 0.630
4.750 500 0.158 0.633 500 0.158 0.158 0.633 0.633
4.775 500 0.159 0.637 500 0.159 0.159 0.637 0.637
4.800 500 0.160 0.640 500 0.160 0.160 0.640 0.640
4.825 500 0.161 0.643 500 0.161 0.161 0.643 0.643
4.850 500 0.162 0.647 500 0.162 0.162 0.647 0.647
4.875 500 0.163 0.650 500 0.163 0.163 0.650 0.650
4.900 500 0.163 0.653 500 0.163 0.163 0.653 0.653
4.925 500 0.164 0.657 500 0.164 0.164 0.657 0.657
4.950 500 0.165 0.660 500 0.165 0.165 0.660 0.660
4.975 500 0.166 0.663 500 0.166 0.166 0.663 0.663
5.000 500 0.167 0.667 500 0.167 0.167 0.667 0.667
5.025 500 0.168 0.670 500 0.168 0.168 0.670 0.670
5.050 500 0.168 0.673 500 0.168 0.168 0.673 0.673
5.075 500 0.169 0.677 500 0.169 0.169 0.677 0.677
5.100 500 0.170 0.680 500 0.170 0.170 0.680 0.680
5.125 500 0.171 0.683 500 0.171 0.171 0.683 0.683
5.150 500 0.172 0.687 500 0.172 0.172 0.687 0.687
5.175 500 0.172 0.690 500 0.172 0.172 0.690 0.690
5.200 500 0.173 0.693 500 0.173 0.173 0.693 0.693
5.225 500 0.174 0.697 500 0.174 0.174 0.697 0.697
5.250 500 0.175 0.700 500 0.175 0.175 0.700 0.700
5.275 500 0.176 0.703 500 0.176 0.176 0.703 0.703
5.300 500 0.177 0.707 500 0.177 0.177 0.707 0.707
5.325 500 0.177 0.710 500 0.177 0.177 0.710 0.710
5.350 500 0.178 0.713 500 0.178 0.178 0.713 0.713
5.375 500 0.179 0.717 500 0.179 0.179 0.717 0.717
5.400 500 0.180 0.720 500 0.180 0.180 0.720 0.720
5.425 500 0.181 0.723 500 0.181 0.181 0.723 0.723
5.450 500 0.182 0.727 500 0.182 0.182 0.727 0.727
5.475 500 0.182 0.730 500 0.182 0.182 0.730 0.730
5.500 500 0.183 0.733 500 0.183 0.183 0.733 0.733
5.525 500 0.184 0.737 500 0.184 0.184 0.737 0.737
5.550 600 0.185 0.617 600 0.185 0.185 0.617 0.617
5.575 600 0.186 0.619 600 0.186 0.186 0.619 0.619
5.600 600 0.187 0.622 600 0.187 0.187 0.622 0.622
5.625 600 0.188 0.625 600 0.188 0.188 0.625 0.625
5.650 600 0.188 0.628 600 0.188 0.188 0.628 0.628
5.675 600 0.189 0.631 600 0.189 0.189 0.631 0.631
5.700 600 0.190 0.633 600 0.190 0.190 0.633 0.633
5.725 600 0.191 0.636 600 0.191 0.191 0.636 0.636
5.750 600 0.192 0.639 600 0.192 0.192 0.639 0.639
5.775 600 0.193 0.642 600 0.193 0.193 0.642 0.642
5.800 600 0.193 0.644 600 0.193 0.193 0.644 0.644
5.825 600 0.194 0.647 600 0.194 0.194 0.647 0.647
5.850 600 0.195 0.650 600 0.195 0.195 0.650 0.650
5.875 600 0.196 0.653 600 0.196 0.196 0.653 0.653
5.900 600 0.197 0.656 600 0.197 0.197 0.656 0.656
5.925 600 0.198 0.658 600 0.198 0.198 0.658 0.658
5.950 600 0.198 0.661 600 0.198 0.198 0.661 0.661
5.975 600 0.199 0.664 600 0.199 0.199 0.664 0.664
6.000 600 0.200 0.667 600 0.200 0.200 0.667 0.667
6.025 600 0.201 0.669 600 0.201 0.201 0.669 0.669
6.050 800 0.202 0.504 800 0.202 0.202 0.504 0.504
6.075 800 0.203 0.506 800 0.203 0.203 0.506 0.506
6.100 800 0.203 0.508 800 0.203 0.203 0.508 0.508
6.125 800 0.204 0.510 800 0.204 0.204 0.510 0.510
6.150 800 0.205 0.512 800 0.205 0.205 0.512 0.512
6.175 800 0.206 0.515 800 0.206 0.206 0.515 0.515
6.200 800 0.207 0.517 800 0.207 0.207 0.517 0.517
6.225 800 0.207 0.519 800 0.207 0.207 0.519 0.519
6.250 800 0.208 0.521 800 0.208 0.208 0.521 0.521
6.275 800 0.209 0.523 800 0.209 0.209 0.523 0.523
6.300 800 0.210 0.525 800 0.210 0.210 0.525 0.525
6.325 800 0.211 0.527 800 0.211 0.211 0.527 0.527
6.350 800 0.212 0.529 800 0.212 0.212 0.529 0.529
6.375 800 0.212 0.531 800 0.212 0.212 0.531 0.531
6.400 800 0.213 0.533 800 0.213 0.213 0.533 0.533
6.425 800 0.214 0.535 800 0.214 0.214 0.535 0.535
6.450 800 0.215 0.537 800 0.215 0.215 0.537 0.537
6.475 800 0.216 0.540 800 0.216 0.216 0.540 0.540
6.500 800 0.217 0.542 800 0.217 0.217 0.542 0.542
6.525 800 0.217 0.544 800 0.217 0.217 0.544 0.544
6.550 1000 0.218 0.437 1000 0.218 0.218 0.437 0.437
6.575 1000 0.219 0.438 1000 0.219 0.219 0.438 0.438
6.600 1000 0.220 0.440 1000 0.220 0.220 0.440 0.440
6.625 1000 0.221 0.442 1000 0.221 0.221 0.442 0.442
6.650 1000 0.222 0.443 1000 0.222 0.222 0.443 0.443
6.675 1000 0.223 0.445 1000 0.223 0.223 0.445 0.445
6.700 1000 0.223 0.447 1000 0.223 0.223 0.447 0.447
6.725 1000 0.224 0.448 1000 0.224 0.224 0.448 0.448
6.750 1000 0.225 0.450 1000 0.225 0.225 0.450 0.450
6.775 1000 0.226 0.452 1000 0.226 0.226 0.452 0.452
6.800 1000 0.227 0.453 1000 0.227 0.227 0.453 0.453
6.825 1000 0.228 0.455 1000 0.228 0.228 0.455 0.455
6.850 1000 0.228 0.457 1000 0.228 0.228 0.457 0.457
6.875 1000 0.229 0.458 1000 0.229 0.229 0.458 0.458
6.900 1000 0.230 0.460 1000 0.230 0.230 0.460 0.460
6.925 1000 0.231 0.462 1000 0.231 0.231 0.462 0.462
6.950 1000 0.232 0.463 1000 0.232 0.232 0.463 0.463
6.975 1000 0.233 0.465 1000 0.233 0.233 0.465 0.465
7.000 1000 0.233 0.467 1000 0.233 0.233 0.467 0.467
7.025 1000 0.234 0.468 1000 0.234 0.234 0.468 0.468
7.050 1100 0.235 0.427 1100 0.235 0.235 0.427 0.427
7.075 1100 0.236 0.429 1100 0.236 0.236 0.429 0.429
7.100 1100 0.237 0.430 1100 0.237 0.237 0.430 0.430
7.125 1100 0.237 0.432 1100 0.237 0.237 0.432 0.432
7.150 1100 0.238 0.433 1100 0.238 0.238 0.433 0.433
7.175 1100 0.239 0.435 1100 0.239 0.239 0.435 0.435
7.200 1100 0.240 0.436 1100 0.240 0.240 0.436 0.436
7.225 1100 0.241 0.438 1100 0.241 0.241 0.438 0.438
7.250 1100 0.242 0.439 1100 0.242 0.242 0.439 0.439
7.275 1100 0.242 0.441 1100 0.242 0.242 0.441 0.441
7.300 1100 0.243 0.442 1100 0.243 0.243 0.442 0.442
7.325 1100 0.244 0.444 1100 0.244 0.244 0.444 0.444
7.350 1100 0.245 0.445 1100 0.245 0.245 0.445 0.445
7.375 1100 0.246 0.447 1100 0.246 0.246 0.447 0.447
7.400 1100 0.247 0.448 1100 0.247 0.247 0.448 0.448
7.425 1100 0.247 0.450 1100 0.247 0.247 0.450 0.450
7.450 1100 0.248 0.452 1100 0.248 0.248 0.452 0.452
7.475 1100 0.249 0.453 1100 0.249 0.249 0.453 0.453
7.500 1100 0.250 0.455 1100 0.250 0.250 0.455 0.455
7.525 1100 0.251 0.456 1100 0.251 0.251 0.456 0.456
7.550 1100 0.252 0.458 1100 0.252 0.252 0.458 0.458
7.575 1100 0.253 0.459 1100 0.253 0.253 0.459 0.459
7.600 1100 0.253 0.461 1100 0.253 0.253 0.461 0.461
7.625 1100 0.254 0.462 1100 0.254 0.254 0.462 0.462
7.650 1100 0.255 0.464 1100 0.255 0.255 0.464 0.464
7.675 1100 0.256 0.465 1100 0.256 0.256 0.465 0.465
7.700 1100 0.257 0.467 1100 0.257 0.257 0.467 0.467
7.725 1100 0.258 0.468 1100 0.258 0.258 0.468 0.468
7.750 1100 0.258 0.470 1100 0.258 0.258 0.470 0.470
7.775 1100 0.259 0.471 1100 0.259 0.259 0.471 0.471
7.800 1100 0.260 0.473 1100 0.260 0.260 0.473 0.473
7.825 1100 0.261 0.474 1100 0.261 0.261 0.474 0.474
7.850 1100 0.262 0.476 1100 0.262 0.262 0.476 0.476
7.875 1100 0.263 0.477 1100 0.263 0.263 0.477 0.477
7.900 1100 0.263 0.479 1100 0.263 0.263 0.479 0.479
7.925 1100 0.264 0.480 1100 0.264 0.264 0.480 0.480
7.950 1100 0.265 0.482 1100 0.265 0.265 0.482 0.482
7.975 1100 0.266 0.483 1100 0.266 0.266 0.483 0.483
8.000 1100 0.267 0.485 1100 0.267 0.267 0.485 0.485
8.025 1100 0.268 0.486 1100 0.268 0.268 0.486 0.486
8.050 1000 0.268 0.537 1000 0.268 0.268 0.537 0.537
8.075 1000 0.269 0.538 1000 0.269 0.269 0.538 0.538
8.100 1000 0.270 0.540 1000 0.270 0.270 0.540 0.540
8.125 1000 0.271 0.542 1000 0.271 0.271 0.542 0.542
8.150 1000 0.272 0.543 1000 0.272 0.272 0.543 0.543
8.175 1000 0.273 0.545 1000 0.273 0.273 0.545 0.545
8.200 1000 0.273 0.547 1000 0.273 0.273 0.547 0.547
8.225 1000 0.274 0.548 1000 0.274 0.274 0.548 0.548
8.250 1000 0.275 0.550 1000 0.275 0.275 0.550 0.550
8.275 1000 0.276 0.552 1000 0.276 0.276 0.552 0.552
8.300 1000 0.277 0.553 1000 0.277 0.277 0.553 0.553
8.325 1000 0.278 0.555 1000 0.278 0.278 0.555 0.555
8.350 1000 0.278 0.557 1000 0.278 0.278 0.557 0.557
8.375 1000 0.279 0.558 1000 0.279 0.279 0.558 0.558
8.400 1000 0.280 0.560 1000 0.280 0.280 0.560 0.560
8.425 1000 0.281 0.562 1000 0.281 0.281 0.562 0.562
8.450 1000 0.282 0.563 1000 0.282 0.282 0.563 0.563
8.475 1000 0.282 0.565 1000 0.282 0.282 0.565 0.565
8.500 1000 0.283 0.567 1000 0.283 0.283 0.567 0.567
8.525 1000 0.284 0.568 1000 0.284 0.284 0.568 0.568
8.550 1000 0.285 0.570 1000 0.285 0.285 0.570 0.570
8.575 1000 0.286 0.572 1000 0.286 0.286 0.572 0.572
8.600 1000 0.287 0.573 1000 0.287 0.287 0.573 0.573
8.625 1000 0.287 0.575 1000 0.287 0.287 0.575 0.575
8.650 1000 0.288 0.577 1000 0.288 0.288 0.577 0.577
8.675 1000 0.289 0.578 1000 0.289 0.289 0.578 0.578
8.700 1000 0.290 0.580 1000 0.290 0.290 0.580 0.580
8.725 1000 0.291 0.582 1000 0.291 0.291 0.582 0.582
8.750 1000 0.292 0.583 1000 0.292 0.292 0.583 0.583
8.775 1000 0.292 0.585 1000 0.292 0.292 0.585 0.585
8.800 1000 0.293 0.587 1000 0.293 0.293 0.587 0.587
8.825 1000 0.294 0.588 1000 0.294 0.294 0.588 0.588
8.850 1000 0.295 0.590 1000 0.295 0.295 0.590 0.590
8.875 1000 0.296 0.592 1000 0.296 0.296 0.592 0.592
8.900 1000 0.297 0.593 1000 0.297 0.297 0.593 0.593
8.925 1000 0.297 0.595 1000 0.297 0.297 0.595 0.595
8.950 1000 0.298 0.597 1000 0.298 0.298 0.597 0.597
8.975 1000 0.299 0.598 1000 0.299 0.299 0.598 0.598
9.000 1000 0.300 0.600 1000 0.300 0.300 0.600 0.600
9.025 1000 0.301 0.602 1000 0.301 0.301 0.602 0.602
9.050 1000 0.302 0.603 1000 0.302 0.302 0.603 0.603
9.075 1000 0.302 0.605 1000 0.302 0.302 0.605 0.605
9.100 1000 0.303 0.607 1000 0.303 0.303 0.607 0.607
9.125 1000 0.304 0.608 1000 0.304 0.304 0.608 0.608
9.150 1000 0.305 0.610 1000 0.305 0.305 0.610 0.610
9.175 1000 0.306 0.612 1000 0.306 0.306 0.612 0.612
9.200 1000 0.307 0.613 1000 0.307 0.307 0.613 0.613
9.225 1000 0.307 0.615 1000 0.307 0.307 0.615 0.615
9.250 1000 0.308 0.617 1000 0.308 0.308 0.617 0.617
9.275 1000 0.309 0.618 1000 0.309 0.309 0.618 0.618
9.300 1000 0.310 0.620 1000 0.310 0.310 0.620 0.620
9.325 1000 0.311 0.622 1000 0.311 0.311 0.622 0.622
9.350 1000 0.312 0.623 1000 0.312 0.312 0.623 0.623
9.375 1000 0.312 0.625 1000 0.312 0.312 0.625 0.625
9.400 1000 0.313 0.627 1000 0.313 0.313 0.627 0.627
9.425 1000 0.314 0.628 1000 0.314 0.314 0.628 0.628
9.450 1000 0.315 0.630 1000 0.315 0.315 0.630 0.630
9.475 1000 0.316 0.632 1000 0.316 0.316 0.632 0.632
9.500 1000 0.317 0.633 1000 0.317 0.317 0.633 0.633
9.525 1000 0.318 0.635 1000 0.318 0.318 0.635 0.635
9.550 1100 0.318 0.579 1100 0.318 0.318 0.579 0.579
9.575 1100 0.319 0.580 1100 0.319 0.319 0.580 0.580
9.600 1100 0.320 0.582 1100 0.320 0.320 0.582 0.582
9.625 1100 0.321 0.583 1100 0.321 0.321 0.583 0.583
9.650 1100 0.322 0.585 1100 0.322 0.322 0.585 0.585
9.675 1100 0.323 0.586 1100 0.323 0.323 0.586 0.586
9.700 1100 0.323 0.588 1100 0.323 0.323 0.588 0.588
9.725 1100 0.324 0.589 1100 0.324 0.324 0.589 0.589
9.750 1100 0.325 0.591 1100 0.325 0.325 0.591 0.591
9.775 1100 0.326 0.592 1100 0.326 0.326 0.592 0.592
